LabVIEW Measurement	
Writer_Version	2
Reader_Version	2
Separator	Tab
Decimal_Separator	.
Multi_Headings	No
X_Columns	One
Time_Pref	Absolute
Operator	gdw1d12
Date	2018/10/15
Time	12:27:44.9921266833530069187
***End_of_Header***	
	
Channels	1	
Samples	1	
Date	2018/10/15	
Time	12:27:44.9921266833530069187	
Y_Unit_Label	Volts	
X_Dimension	Time	
X0	0.0000000000000000E+0	
Delta_X	0.010000	
***End_of_Header***		
X_Value	Dev1/ai0	Comment
0.000000	1.055521
0.010000	1.044068
0.020000	1.054249
0.030000	1.070156
0.040000	1.082882
0.050000	1.093699
0.060000	1.094972
0.070000	1.087973
0.080000	1.078428
0.090000	1.080973
0.100000	1.089245
0.110000	1.105153
0.120000	1.119151
0.130000	1.128060
0.140000	1.123606
0.150000	1.117242
0.160000	1.103244
0.170000	1.110243
0.180000	1.119151
0.190000	1.131877
0.200000	1.149694
0.210000	1.147149
0.220000	1.136332
0.230000	1.129969
0.240000	1.114061
0.250000	1.118515
0.260000	1.129332
0.270000	1.137604
0.280000	1.147149
0.290000	1.138240
0.300000	1.121060
0.310000	1.112152
0.320000	1.100062
0.330000	1.101971
0.340000	1.111516
0.350000	1.115970
0.360000	1.117242
0.370000	1.105789
0.380000	1.086700
0.390000	1.071429
0.400000	1.066338
0.410000	1.068884
0.420000	1.076519
0.430000	1.080337
0.440000	1.072065
0.450000	1.058703
0.460000	1.044068
0.470000	1.030706
0.480000	1.031978
0.490000	1.034523
0.500000	1.038341
0.510000	1.044704
0.520000	1.035796
0.530000	1.024343
0.540000	1.016071
0.550000	1.007162
0.560000	1.007799
0.570000	1.018616
0.580000	1.023070
0.590000	1.030069
0.600000	1.024343
0.610000	1.016071
0.620000	1.012253
0.630000	1.009708
0.640000	1.014798
0.650000	1.030069
0.660000	1.038977
0.670000	1.044704
0.680000	1.042795
0.690000	1.037069
0.700000	1.037705
0.710000	1.044068
0.720000	1.052340
0.730000	1.064429
0.740000	1.073974
0.750000	1.079064
0.760000	1.079701
0.770000	1.079701
0.780000	1.078428
0.790000	1.086700
0.800000	1.095608
0.810000	1.103244
0.820000	1.115334
0.830000	1.117879
0.840000	1.115970
0.850000	1.117242
0.860000	1.115334
0.870000	1.121060
0.880000	1.132514
0.890000	1.137604
0.900000	1.140786
0.910000	1.143331
0.920000	1.134423
0.930000	1.136332
0.940000	1.135695
0.950000	1.136968
0.960000	1.142695
0.970000	1.143967
0.980000	1.143967
0.990000	1.143331
1.000000	1.133150
1.010000	1.128060
1.020000	1.127423
1.030000	1.125514
1.040000	1.127423
1.050000	1.128060
1.060000	1.122333
1.070000	1.113425
1.080000	1.107698
1.090000	1.100699
1.100000	1.098153
1.110000	1.097517
1.120000	1.094972
1.130000	1.093063
1.140000	1.086700
1.150000	1.077792
1.160000	1.074610
1.170000	1.067611
1.180000	1.063793
1.190000	1.063793
1.200000	1.058703
1.210000	1.058703
1.220000	1.054885
1.230000	1.047249
1.240000	1.044068
1.250000	1.040250
1.260000	1.037069
1.270000	1.038977
1.280000	1.038977
1.290000	1.036432
1.300000	1.038341
1.310000	1.032614
1.320000	1.029433
1.330000	1.031978
1.340000	1.028160
1.350000	1.030706
1.360000	1.036432
1.370000	1.037069
1.380000	1.040886
1.390000	1.039614
1.400000	1.036432
1.410000	1.038341
1.420000	1.043432
1.430000	1.044704
1.440000	1.051703
1.450000	1.054249
1.460000	1.054249
1.470000	1.059975
1.480000	1.058066
1.490000	1.057430
1.500000	1.065066
1.510000	1.065702
1.520000	1.073338
1.530000	1.081610
1.540000	1.078428
1.550000	1.081610
1.560000	1.081610
1.570000	1.079064
1.580000	1.084791
1.590000	1.087336
1.600000	1.088609
1.610000	1.098153
1.620000	1.098790
1.630000	1.098153
1.640000	1.100699
1.650000	1.096881
1.660000	1.096245
1.670000	1.100062
1.680000	1.101971
1.690000	1.110243
1.700000	1.112788
1.710000	1.107698
1.720000	1.108334
1.730000	1.103880
1.740000	1.100699
1.750000	1.105789
1.760000	1.110879
1.770000	1.111516
1.780000	1.115334
1.790000	1.110879
1.800000	1.103244
1.810000	1.101971
1.820000	1.100062
1.830000	1.100062
1.840000	1.108971
1.850000	1.108334
1.860000	1.108334
1.870000	1.103880
1.880000	1.097517
1.890000	1.094972
1.900000	1.093063
1.910000	1.089882
1.920000	1.096245
1.930000	1.097517
1.940000	1.093063
1.950000	1.089882
1.960000	1.082882
1.970000	1.078428
1.980000	1.080337
1.990000	1.079064
2.000000	1.080973
2.010000	1.086064
2.020000	1.079701
2.030000	1.075883
2.040000	1.070156
2.050000	1.063793
2.060000	1.064429
2.070000	1.067611
2.080000	1.067611
2.090000	1.068247
2.100000	1.063157
2.110000	1.054885
2.120000	1.054885
2.130000	1.052976
2.140000	1.051703
2.150000	1.057430
2.160000	1.054249
2.170000	1.052340
2.180000	1.051703
2.190000	1.047249
2.200000	1.043432
2.210000	1.044704
2.220000	1.044704
2.230000	1.051067
2.240000	1.053612
2.250000	1.048522
2.260000	1.048522
2.270000	1.047249
2.280000	1.044704
2.290000	1.051703
2.300000	1.054249
2.310000	1.057430
2.320000	1.064429
2.330000	1.062521
2.340000	1.064429
2.350000	1.066338
2.360000	1.066975
2.370000	1.073338
2.380000	1.080973
2.390000	1.082882
2.400000	1.087336
2.410000	1.090518
2.420000	1.087973
2.430000	1.094336
2.440000	1.098790
2.450000	1.103244
2.460000	1.112152
2.470000	1.115334
2.480000	1.114697
2.490000	1.117242
2.500000	1.114697
2.510000	1.115970
2.520000	1.122333
2.530000	1.126151
2.540000	1.128696
2.550000	1.129332
2.560000	1.123606
2.570000	1.123606
2.580000	1.121060
2.590000	1.119151
2.600000	1.121697
2.610000	1.124242
2.620000	1.121060
2.630000	1.119788
2.640000	1.112152
2.650000	1.103880
2.660000	1.101971
2.670000	1.096881
2.680000	1.097517
2.690000	1.100699
2.700000	1.095608
2.710000	1.089882
2.720000	1.080337
2.730000	1.068884
2.740000	1.067611
2.750000	1.066975
2.760000	1.064429
2.770000	1.068247
2.780000	1.063157
2.790000	1.057430
2.800000	1.052976
2.810000	1.043432
2.820000	1.038341
2.830000	1.042159
2.840000	1.042159
2.850000	1.047249
2.860000	1.047886
2.870000	1.042795
2.880000	1.040250
2.890000	1.038341
2.900000	1.034523
2.910000	1.037069
2.920000	1.042795
2.930000	1.049158
2.940000	1.057430
2.950000	1.059339
2.960000	1.056158
2.970000	1.058066
2.980000	1.055521
2.990000	1.061248
3.000000	1.073338
3.010000	1.080973
3.020000	1.087973
3.030000	1.094336
3.040000	1.089882
3.050000	1.092427
3.060000	1.095608
3.070000	1.100062
3.080000	1.112788
3.090000	1.121060
3.100000	1.125514
3.110000	1.130605
3.120000	1.126787
3.130000	1.125514
3.140000	1.129332
3.150000	1.130605
3.160000	1.135695
3.170000	1.144603
3.180000	1.145240
3.190000	1.145240
3.200000	1.143967
3.210000	1.136968
3.220000	1.134423
3.230000	1.133786
3.240000	1.135695
3.250000	1.138877
3.260000	1.135695
3.270000	1.127423
3.280000	1.119151
3.290000	1.109607
3.300000	1.103244
3.310000	1.105153
3.320000	1.100699
3.330000	1.098790
3.340000	1.097517
3.350000	1.084155
3.360000	1.070792
3.370000	1.061248
3.380000	1.052976
3.390000	1.055521
3.400000	1.058066
3.410000	1.055521
3.420000	1.047249
3.430000	1.035796
3.440000	1.023706
3.450000	1.018616
3.460000	1.016707
3.470000	1.017979
3.480000	1.027524
3.490000	1.025615
3.500000	1.018616
3.510000	1.010980
3.520000	1.000163
3.530000	1.002072
3.540000	1.006526
3.550000	1.016071
3.560000	1.024979
3.570000	1.027524
3.580000	1.021797
3.590000	1.017343
3.600000	1.012889
3.610000	1.016071
3.620000	1.030069
3.630000	1.044068
3.640000	1.052976
3.650000	1.059975
3.660000	1.055521
3.670000	1.049158
3.680000	1.048522
3.690000	1.054885
3.700000	1.066975
3.710000	1.087973
3.720000	1.091790
3.730000	1.099426
3.740000	1.093063
3.750000	1.085427
3.760000	1.085427
3.770000	1.090518
3.780000	1.104516
3.790000	1.122333
3.800000	1.124242
3.810000	1.124242
3.820000	1.116606
3.830000	1.105789
3.840000	1.103244
3.850000	1.109607
3.860000	1.121697
3.870000	1.133786
3.880000	1.135059
3.890000	1.126787
3.900000	1.114697
3.910000	1.102608
3.920000	1.097517
3.930000	1.105153
3.940000	1.117242
3.950000	1.122969
3.960000	1.124878
3.970000	1.110243
3.980000	1.094336
3.990000	1.084155
4.000000	1.078428
4.010000	1.086700
4.020000	1.094972
4.030000	1.100062
4.040000	1.095608
4.050000	1.086700
4.060000	1.068247
4.070000	1.061248
4.080000	1.061248
4.090000	1.063793
4.100000	1.077156
4.110000	1.076519
4.120000	1.072065
4.130000	1.065066
4.140000	1.051067
4.150000	1.044704
4.160000	1.047886
4.170000	1.054885
4.180000	1.065702
4.190000	1.068884
4.200000	1.061248
4.210000	1.056158
4.220000	1.046613
4.230000	1.038977
4.240000	1.049158
4.250000	1.061248
4.260000	1.067611
4.270000	1.075247
4.280000	1.071429
4.290000	1.061248
4.300000	1.057430
4.310000	1.054885
4.320000	1.062521
4.330000	1.078428
4.340000	1.086064
4.350000	1.091154
4.360000	1.087973
4.370000	1.073974
4.380000	1.070156
4.390000	1.070156
4.400000	1.077156
4.410000	1.091790
4.420000	1.100062
4.430000	1.098790
4.440000	1.095608
4.450000	1.084155
4.460000	1.078428
4.470000	1.082882
4.480000	1.089245
4.490000	1.098153
4.500000	1.106425
4.510000	1.099426
4.520000	1.091790
4.530000	1.082882
4.540000	1.077792
4.550000	1.079064
4.560000	1.088609
4.570000	1.093063
4.580000	1.100062
4.590000	1.096245
4.600000	1.087336
4.610000	1.078428
4.620000	1.072701
4.630000	1.072065
4.640000	1.082246
4.650000	1.085427
4.660000	1.090518
4.670000	1.088609
4.680000	1.076519
4.690000	1.069520
4.700000	1.067611
4.710000	1.062521
4.720000	1.074610
4.730000	1.077792
4.740000	1.077792
4.750000	1.080337
4.760000	1.068884
4.770000	1.062521
4.780000	1.061884
4.790000	1.061248
4.800000	1.067611
4.810000	1.075247
4.820000	1.077156
4.830000	1.075247
4.840000	1.073338
4.850000	1.065702
4.860000	1.066338
4.870000	1.072701
4.880000	1.075883
4.890000	1.087336
4.900000	1.093063
4.910000	1.092427
4.920000	1.090518
4.930000	1.087336
4.940000	1.088609
4.950000	1.098153
4.960000	1.105153
4.970000	1.117242
4.980000	1.123606
4.990000	1.122333
5.000000	1.121060
5.010000	1.119788
5.020000	1.115970
5.030000	1.126787
5.040000	1.133150
5.050000	1.140149
5.060000	1.147149
5.070000	1.142058
5.080000	1.137604
5.090000	1.136332
5.100000	1.131241
5.110000	1.132514
5.120000	1.138877
5.130000	1.138877
5.140000	1.137604
5.150000	1.133786
5.160000	1.124878
5.170000	1.115334
5.180000	1.112788
5.190000	1.105789
5.200000	1.109607
5.210000	1.106425
5.220000	1.101971
5.230000	1.093699
5.240000	1.085427
5.250000	1.073974
5.260000	1.071429
5.270000	1.063157
5.280000	1.063793
5.290000	1.065066
5.300000	1.057430
5.310000	1.052340
5.320000	1.046613
5.330000	1.036432
5.340000	1.032614
5.350000	1.033887
5.360000	1.031342
5.370000	1.035160
5.380000	1.035160
5.390000	1.031342
5.400000	1.028797
5.410000	1.027524
5.420000	1.024343
5.430000	1.028797
5.440000	1.032614
5.450000	1.031978
5.460000	1.038341
5.470000	1.033887
5.480000	1.033887
5.490000	1.040250
5.500000	1.040250
5.510000	1.045977
5.520000	1.054249
5.530000	1.054249
5.540000	1.054885
5.550000	1.052976
5.560000	1.052340
5.570000	1.060612
5.580000	1.066338
5.590000	1.072701
5.600000	1.082882
5.610000	1.079701
5.620000	1.074610
5.630000	1.073974
5.640000	1.071429
5.650000	1.077792
5.660000	1.087336
5.670000	1.093063
5.680000	1.101971
5.690000	1.102608
5.700000	1.094336
5.710000	1.093063
5.720000	1.088609
5.730000	1.089882
5.740000	1.100699
5.750000	1.110243
5.760000	1.113425
5.770000	1.114061
5.780000	1.105789
5.790000	1.098790
5.800000	1.094972
5.810000	1.094336
5.820000	1.103244
5.830000	1.113425
5.840000	1.113425
5.850000	1.112152
5.860000	1.102608
5.870000	1.090518
5.880000	1.087336
5.890000	1.087336
5.900000	1.093063
5.910000	1.103880
5.920000	1.103880
5.930000	1.098153
5.940000	1.093699
5.950000	1.080337
5.960000	1.073338
5.970000	1.076519
5.980000	1.079064
5.990000	1.086064
6.000000	1.091154
6.010000	1.086064
6.020000	1.080973
6.030000	1.068884
6.040000	1.061884
6.050000	1.062521
6.060000	1.069520
6.070000	1.077156
6.080000	1.085427
6.090000	1.079064
6.100000	1.076519
6.110000	1.068884
6.120000	1.063793
6.130000	1.059975
6.140000	1.070156
6.150000	1.075883
6.160000	1.080973
6.170000	1.082882
6.180000	1.075883
6.190000	1.070156
6.200000	1.066975
6.210000	1.064429
6.220000	1.072065
6.230000	1.081610
6.240000	1.082882
6.250000	1.087973
6.260000	1.078428
6.270000	1.069520
6.280000	1.065702
6.290000	1.066975
6.300000	1.073974
6.310000	1.084155
6.320000	1.084791
6.330000	1.085427
6.340000	1.079701
6.350000	1.068247
6.360000	1.065066
6.370000	1.068884
6.380000	1.075247
6.390000	1.084791
6.400000	1.084791
6.410000	1.081610
6.420000	1.077792
6.430000	1.072065
6.440000	1.067611
6.450000	1.074610
6.460000	1.079701
6.470000	1.082882
6.480000	1.086700
6.490000	1.079064
6.500000	1.077156
6.510000	1.077156
6.520000	1.072065
6.530000	1.077156
6.540000	1.080337
6.550000	1.082246
6.560000	1.084791
6.570000	1.079701
6.580000	1.075247
6.590000	1.077792
6.600000	1.075247
6.610000	1.076519
6.620000	1.080973
6.630000	1.082246
6.640000	1.081610
6.650000	1.080337
6.660000	1.075883
6.670000	1.073974
6.680000	1.076519
6.690000	1.075247
6.700000	1.079064
6.710000	1.079701
6.720000	1.077156
6.730000	1.079701
6.740000	1.075883
6.750000	1.072701
6.760000	1.077156
6.770000	1.075247
6.780000	1.075247
6.790000	1.078428
6.800000	1.072065
6.810000	1.073974
6.820000	1.072701
6.830000	1.068247
6.840000	1.073338
6.850000	1.072701
6.860000	1.069520
6.870000	1.070792
6.880000	1.066338
6.890000	1.063157
6.900000	1.065066
6.910000	1.065066
6.920000	1.063157
6.930000	1.064429
6.940000	1.059975
6.950000	1.056158
6.960000	1.057430
6.970000	1.056794
6.980000	1.057430
6.990000	1.057430
7.000000	1.056158
7.010000	1.055521
7.020000	1.053612
7.030000	1.048522
7.040000	1.051703
7.050000	1.050431
7.060000	1.056158
7.070000	1.061884
7.080000	1.058066
7.090000	1.053612
7.100000	1.052340
7.110000	1.046613
7.120000	1.052976
7.130000	1.061248
7.140000	1.067611
7.150000	1.072065
7.160000	1.073338
7.170000	1.065066
7.180000	1.064429
7.190000	1.066338
7.200000	1.067611
7.210000	1.084155
7.220000	1.091790
7.230000	1.099426
7.240000	1.100699
7.250000	1.100062
7.260000	1.096881
7.270000	1.100062
7.280000	1.102608
7.290000	1.114061
7.300000	1.128696
7.310000	1.134423
7.320000	1.143331
7.330000	1.139513
7.340000	1.133786
7.350000	1.130605
7.360000	1.133786
7.370000	1.142695
7.380000	1.161147
7.390000	1.169419
7.400000	1.171328
7.410000	1.165601
7.420000	1.154148
7.430000	1.143331
7.440000	1.147149
7.450000	1.147785
7.460000	1.161147
7.470000	1.168783
7.480000	1.166238
7.490000	1.154784
7.500000	1.138240
7.510000	1.119788
7.520000	1.115970
7.530000	1.115970
7.540000	1.124878
7.550000	1.129332
7.560000	1.121060
7.570000	1.110879
7.580000	1.085427
7.590000	1.069520
7.600000	1.058703
7.610000	1.055521
7.620000	1.065702
7.630000	1.055521
7.640000	1.058066
7.650000	1.038341
7.660000	1.022434
7.670000	1.011616
7.680000	1.002708
7.690000	1.005890
7.700000	1.010980
7.710000	1.012889
7.720000	1.017343
7.730000	1.005253
7.740000	0.991255
7.750000	0.993800
7.760000	0.986164
7.770000	0.996345
7.780000	1.004617
7.790000	1.010344
7.800000	1.019252
7.810000	1.019888
7.820000	1.014798
7.830000	1.021797
7.840000	1.019888
7.850000	1.035160
7.860000	1.047249
7.870000	1.061884
7.880000	1.071429
7.890000	1.077792
7.900000	1.079701
7.910000	1.079701
7.920000	1.087336
7.930000	1.098790
7.940000	1.105153
7.950000	1.121060
7.960000	1.135059
7.970000	1.140786
7.980000	1.147149
7.990000	1.143331
8.000000	1.140786
8.010000	1.150966
8.020000	1.149058
8.030000	1.163692
8.040000	1.168147
8.050000	1.168147
8.060000	1.179600
8.070000	1.168147
8.080000	1.166238
8.090000	1.163056
8.100000	1.154148
8.110000	1.159875
8.120000	1.164965
8.130000	1.159238
8.140000	1.166238
8.150000	1.154784
8.160000	1.144603
8.170000	1.133786
8.180000	1.128696
8.190000	1.131877
8.200000	1.129332
8.210000	1.122969
8.220000	1.118515
8.230000	1.108334
8.240000	1.101971
8.250000	1.084791
8.260000	1.084155
8.270000	1.080337
8.280000	1.075247
8.290000	1.070792
8.300000	1.058066
8.310000	1.052340
8.320000	1.044704
8.330000	1.035796
8.340000	1.042159
8.350000	1.037705
8.360000	1.016707
8.370000	1.007799
8.380000	0.992527
8.390000	0.992527
8.400000	1.000799
8.410000	1.005253
8.420000	1.005253
8.430000	1.000163
8.440000	0.981074
8.450000	0.967075
8.460000	0.958803
8.470000	0.968348
8.480000	0.981074
8.490000	1.001436
8.500000	1.003345
8.510000	0.993800
8.520000	0.975984
8.530000	0.960076
8.540000	0.965166
8.550000	0.983619
8.560000	1.005253
8.570000	1.028797
8.580000	1.028797
8.590000	1.019888
8.600000	1.009708
8.610000	1.002708
8.620000	1.017979
8.630000	1.032614
8.640000	1.048522
8.650000	1.070156
8.660000	1.082882
8.670000	1.076519
8.680000	1.073338
8.690000	1.062521
8.700000	1.066975
8.710000	1.085427
8.720000	1.107062
8.730000	1.126151
8.740000	1.142058
8.750000	1.141422
8.760000	1.135695
8.770000	1.126787
8.780000	1.124242
8.790000	1.135059
8.800000	1.156693
8.810000	1.174510
8.820000	1.190417
8.830000	1.193599
8.840000	1.186599
8.850000	1.171328
8.860000	1.157966
8.870000	1.156693
8.880000	1.173873
8.890000	1.189145
8.900000	1.207597
8.910000	1.209506
8.920000	1.196780
8.930000	1.166238
8.940000	1.149058
8.950000	1.130605
8.960000	1.144603
8.970000	1.156057
8.980000	1.168147
8.990000	1.168783
9.000000	1.145876
9.010000	1.117242
9.020000	1.093063
9.030000	1.072701
9.040000	1.071429
9.050000	1.079701
9.060000	1.086064
9.070000	1.089882
9.080000	1.077792
9.090000	1.053612
9.100000	1.023070
9.110000	1.006526
9.120000	0.992527
9.130000	1.002072
9.140000	1.014162
9.150000	1.028160
9.160000	1.030706
9.170000	1.013525
9.180000	0.981074
9.190000	0.970257
9.200000	0.965803
9.210000	0.982983
9.220000	1.002072
9.230000	1.012889
9.240000	1.017979
9.250000	1.015434
9.260000	1.000799
9.270000	0.996345
9.280000	1.002072
9.290000	1.020525
9.300000	1.044068
9.310000	1.056158
9.320000	1.061248
9.330000	1.058703
9.340000	1.058703
9.350000	1.058066
9.360000	1.073338
9.370000	1.089245
9.380000	1.103880
9.390000	1.113425
9.400000	1.113425
9.410000	1.107698
9.420000	1.110879
9.430000	1.117242
9.440000	1.131241
9.450000	1.142695
9.460000	1.146512
9.470000	1.145876
9.480000	1.142695
9.490000	1.133150
9.500000	1.140149
9.510000	1.142058
9.520000	1.150330
9.530000	1.157329
9.540000	1.149058
9.550000	1.138240
9.560000	1.130605
9.570000	1.118515
9.580000	1.117879
9.590000	1.124242
9.600000	1.124878
9.610000	1.124878
9.620000	1.110243
9.630000	1.091154
9.640000	1.077156
9.650000	1.065702
9.660000	1.063793
9.670000	1.074610
9.680000	1.079064
9.690000	1.076519
9.700000	1.063793
9.710000	1.040250
9.720000	1.023070
9.730000	1.018616
9.740000	1.022434
9.750000	1.035160
9.760000	1.047249
9.770000	1.043432
9.780000	1.033251
9.790000	1.016707
9.800000	1.000163
9.810000	1.003345
9.820000	1.015434
9.830000	1.035160
9.840000	1.051703
9.850000	1.055521
9.860000	1.037705
9.870000	1.023070
9.880000	1.010980
9.890000	1.016707
9.900000	1.046613
9.910000	1.070156
9.920000	1.091154
9.930000	1.089245
9.940000	1.068884
9.950000	1.054249
9.960000	1.047886
9.970000	1.056794
9.980000	1.086064
9.990000	1.112788
10.000000	1.128060
10.010000	1.124242
10.020000	1.105789
10.030000	1.083519
10.040000	1.080337
10.050000	1.093699
10.060000	1.119151
10.070000	1.143967
10.080000	1.150330
10.090000	1.142695
10.100000	1.126787
10.110000	1.105789
10.120000	1.100699
10.130000	1.109607
10.140000	1.125514
10.150000	1.146512
10.160000	1.150966
10.170000	1.142058
10.180000	1.121060
10.190000	1.100062
10.200000	1.093063
10.210000	1.107698
10.220000	1.117242
10.230000	1.131241
10.240000	1.133150
10.250000	1.117879
10.260000	1.099426
