LabVIEW Measurement	
Writer_Version	2
Reader_Version	2
Separator	Tab
Decimal_Separator	.
Multi_Headings	No
X_Columns	One
Time_Pref	Absolute
Operator	gdw1d12
Date	2018/10/12
Time	17:00:06.3152617833533478613
***End_of_Header***	
	
Channels	1	
Samples	1	
Date	2018/10/12	
Time	17:00:49.48526178335334876	
Y_Unit_Label	Volts	
X_Dimension	Time	
X0	0.0000000000000000E+0	
Delta_X	0.010000	
***End_of_Header***		
X_Value	Dev1/ai0	Comment
0.000000	0.726554
0.010000	0.729099
0.020000	0.728462
0.030000	0.727190
0.040000	0.728462
0.050000	0.724645
0.060000	0.725917
0.070000	0.726554
0.080000	0.725917
0.090000	0.731644
0.100000	0.730371
0.110000	0.733553
0.120000	0.733553
0.130000	0.732280
0.140000	0.734189
0.150000	0.733553
0.160000	0.733553
0.170000	0.740552
0.180000	0.739916
0.190000	0.741188
0.200000	0.742461
0.210000	0.739280
0.220000	0.741825
0.230000	0.741825
0.240000	0.741825
0.250000	0.745006
0.260000	0.744370
0.270000	0.745643
0.280000	0.746915
0.290000	0.743097
0.300000	0.745006
0.310000	0.744370
0.320000	0.743734
0.330000	0.746915
0.340000	0.745006
0.350000	0.746279
0.360000	0.743734
0.370000	0.739280
0.380000	0.741188
0.390000	0.738643
0.400000	0.738007
0.410000	0.741188
0.420000	0.736098
0.430000	0.738007
0.440000	0.735462
0.450000	0.729099
0.460000	0.733553
0.470000	0.728462
0.480000	0.729099
0.490000	0.733553
0.500000	0.729099
0.510000	0.729099
0.520000	0.729735
0.530000	0.724645
0.540000	0.725917
0.550000	0.725917
0.560000	0.727190
0.570000	0.728462
0.580000	0.728462
0.590000	0.729099
0.600000	0.729735
0.610000	0.724008
0.620000	0.727190
0.630000	0.725917
0.640000	0.729099
0.650000	0.733553
0.660000	0.731644
0.670000	0.734189
0.680000	0.734189
0.690000	0.731008
0.700000	0.736734
0.710000	0.736734
0.720000	0.736734
0.730000	0.740552
0.740000	0.739280
0.750000	0.741188
0.760000	0.740552
0.770000	0.739280
0.780000	0.743097
0.790000	0.740552
0.800000	0.742461
0.810000	0.746279
0.820000	0.743734
0.830000	0.745643
0.840000	0.744370
0.850000	0.741825
0.860000	0.743734
0.870000	0.741188
0.880000	0.742461
0.890000	0.745006
0.900000	0.741825
0.910000	0.743097
0.920000	0.741188
0.930000	0.739280
0.940000	0.739916
0.950000	0.736734
0.960000	0.739280
0.970000	0.739280
0.980000	0.736734
0.990000	0.736734
1.000000	0.733553
1.010000	0.729735
1.020000	0.732917
1.030000	0.731644
1.040000	0.731644
1.050000	0.732917
1.060000	0.730371
1.070000	0.729735
1.080000	0.727826
1.090000	0.729099
1.100000	0.731008
1.110000	0.728462
1.120000	0.729099
1.130000	0.731644
1.140000	0.728462
1.150000	0.729099
1.160000	0.729099
1.170000	0.730371
1.180000	0.734189
1.190000	0.731644
1.200000	0.735462
1.210000	0.736098
1.220000	0.733553
1.230000	0.738007
1.240000	0.736734
1.250000	0.736098
1.260000	0.741188
1.270000	0.739280
1.280000	0.743734
1.290000	0.742461
1.300000	0.739916
1.310000	0.743097
1.320000	0.741825
1.330000	0.744370
1.340000	0.746915
1.350000	0.745643
1.360000	0.746279
1.370000	0.744370
1.380000	0.743734
1.390000	0.746279
1.400000	0.743097
1.410000	0.743097
1.420000	0.744370
1.430000	0.742461
1.440000	0.745643
1.450000	0.742461
1.460000	0.739280
1.470000	0.738643
1.480000	0.737371
1.490000	0.738643
1.500000	0.739280
1.510000	0.734189
1.520000	0.734825
1.530000	0.734189
1.540000	0.731008
1.550000	0.732280
1.560000	0.729735
1.570000	0.731008
1.580000	0.731644
1.590000	0.726554
1.600000	0.730371
1.610000	0.727826
1.620000	0.725917
1.630000	0.726554
1.640000	0.724645
1.650000	0.727190
1.660000	0.729099
1.670000	0.726554
1.680000	0.731644
1.690000	0.728462
1.700000	0.729099
1.710000	0.731644
1.720000	0.731008
1.730000	0.731644
1.740000	0.733553
1.750000	0.731644
1.760000	0.734825
1.770000	0.733553
1.780000	0.736098
1.790000	0.738643
1.800000	0.736098
1.810000	0.739280
1.820000	0.741188
1.830000	0.739916
1.840000	0.744370
1.850000	0.741188
1.860000	0.741825
1.870000	0.745643
1.880000	0.743097
1.890000	0.746915
1.900000	0.746915
1.910000	0.744370
1.920000	0.747551
1.930000	0.745643
1.940000	0.743734
1.950000	0.746279
1.960000	0.741825
1.970000	0.746279
1.980000	0.743734
1.990000	0.741825
2.000000	0.743734
2.010000	0.740552
2.020000	0.741188
2.030000	0.739280
2.040000	0.736734
2.050000	0.739280
2.060000	0.739280
2.070000	0.734825
2.080000	0.735462
2.090000	0.733553
2.100000	0.732280
2.110000	0.732280
2.120000	0.729099
2.130000	0.731008
2.140000	0.729735
2.150000	0.727826
2.160000	0.731644
2.170000	0.726554
2.180000	0.728462
2.190000	0.727190
2.200000	0.724008
2.210000	0.727190
2.220000	0.726554
2.230000	0.725917
2.240000	0.730371
2.250000	0.725917
2.260000	0.727190
2.270000	0.727826
2.280000	0.728462
2.290000	0.731008
2.300000	0.728462
2.310000	0.729099
2.320000	0.733553
2.330000	0.731644
2.340000	0.734825
2.350000	0.736098
2.360000	0.732917
2.370000	0.737371
2.380000	0.736734
2.390000	0.736734
2.400000	0.738643
2.410000	0.738007
2.420000	0.740552
2.430000	0.741825
2.440000	0.739280
2.450000	0.745006
2.460000	0.743097
2.470000	0.742461
2.480000	0.745006
2.490000	0.743734
2.500000	0.743097
2.510000	0.743734
2.520000	0.742461
2.530000	0.746915
2.540000	0.744370
2.550000	0.743097
2.560000	0.745643
2.570000	0.740552
2.580000	0.741825
2.590000	0.741188
2.600000	0.741188
2.610000	0.741825
2.620000	0.740552
2.630000	0.739280
2.640000	0.739280
2.650000	0.734189
2.660000	0.736098
2.670000	0.733553
2.680000	0.732917
2.690000	0.733553
2.700000	0.731644
2.710000	0.731008
2.720000	0.732917
2.730000	0.729099
2.740000	0.731644
2.750000	0.731644
2.760000	0.730371
2.770000	0.731008
2.780000	0.729099
2.790000	0.728462
2.800000	0.730371
2.810000	0.727190
2.820000	0.730371
2.830000	0.729735
2.840000	0.726554
2.850000	0.732280
2.860000	0.731644
2.870000	0.730371
2.880000	0.732280
2.890000	0.730371
2.900000	0.735462
2.910000	0.734189
2.920000	0.732280
2.930000	0.739280
2.940000	0.736734
2.950000	0.736734
2.960000	0.739916
2.970000	0.738007
2.980000	0.743734
2.990000	0.741825
3.000000	0.740552
3.010000	0.745643
3.020000	0.741825
3.030000	0.743734
3.040000	0.743734
3.050000	0.742461
3.060000	0.745006
3.070000	0.743734
3.080000	0.742461
3.090000	0.744370
3.100000	0.741188
3.110000	0.744370
3.120000	0.743734
3.130000	0.741188
3.140000	0.743734
3.150000	0.743097
3.160000	0.742461
3.170000	0.743734
3.180000	0.739916
3.190000	0.739916
3.200000	0.739916
3.210000	0.736098
3.220000	0.739280
3.230000	0.735462
3.240000	0.736734
3.250000	0.735462
3.260000	0.732280
3.270000	0.733553
3.280000	0.732280
3.290000	0.729099
3.300000	0.731644
3.310000	0.729735
3.320000	0.730371
3.330000	0.731644
3.340000	0.727826
3.350000	0.729735
3.360000	0.729735
3.370000	0.728462
3.380000	0.731644
3.390000	0.728462
3.400000	0.731008
3.410000	0.731008
3.420000	0.729099
3.430000	0.733553
3.440000	0.731644
3.450000	0.731644
3.460000	0.736734
3.470000	0.732917
3.480000	0.734825
3.490000	0.738007
3.500000	0.734825
3.510000	0.737371
3.520000	0.738007
3.530000	0.738643
3.540000	0.741825
3.550000	0.739280
3.560000	0.741825
3.570000	0.741825
3.580000	0.741825
3.590000	0.745006
3.600000	0.743734
3.610000	0.742461
3.620000	0.745006
3.630000	0.744370
3.640000	0.744370
3.650000	0.745643
3.660000	0.741825
3.670000	0.746279
3.680000	0.741825
3.690000	0.741825
3.700000	0.743734
3.710000	0.740552
3.720000	0.741188
3.730000	0.741188
3.740000	0.736734
3.750000	0.739280
3.760000	0.738643
3.770000	0.734189
3.780000	0.736098
3.790000	0.731644
3.800000	0.732917
3.810000	0.733553
3.820000	0.731008
3.830000	0.732917
3.840000	0.729099
3.850000	0.729735
3.860000	0.730371
3.870000	0.727190
3.880000	0.729099
3.890000	0.729099
3.900000	0.727190
3.910000	0.729735
3.920000	0.727190
3.930000	0.727190
3.940000	0.729099
3.950000	0.726554
3.960000	0.728462
3.970000	0.728462
3.980000	0.728462
3.990000	0.731008
4.000000	0.729099
4.010000	0.731644
4.020000	0.732917
4.030000	0.731644
4.040000	0.736734
4.050000	0.733553
4.060000	0.734189
4.070000	0.738007
4.080000	0.734825
4.090000	0.738643
4.100000	0.739280
4.110000	0.738643
4.120000	0.739916
4.130000	0.739916
4.140000	0.741188
4.150000	0.743734
4.160000	0.742461
4.170000	0.743097
4.180000	0.745006
4.190000	0.743734
4.200000	0.746279
4.210000	0.746279
4.220000	0.744370
4.230000	0.747551
4.240000	0.744370
4.250000	0.744370
4.260000	0.746279
4.270000	0.743734
4.280000	0.744370
4.290000	0.743097
4.300000	0.740552
4.310000	0.741825
4.320000	0.739916
4.330000	0.741188
4.340000	0.740552
4.350000	0.737371
4.360000	0.740552
4.370000	0.737371
4.380000	0.734825
4.390000	0.736734
4.400000	0.732280
4.410000	0.732280
4.420000	0.732280
4.430000	0.730371
4.440000	0.732280
4.450000	0.731008
4.460000	0.729735
4.470000	0.732280
4.480000	0.728462
4.490000	0.729735
4.500000	0.731644
4.510000	0.729099
4.520000	0.732280
4.530000	0.728462
4.540000	0.728462
4.550000	0.734189
4.560000	0.730371
4.570000	0.730371
4.580000	0.732917
4.590000	0.730371
4.600000	0.734825
4.610000	0.733553
4.620000	0.734189
4.630000	0.736734
4.640000	0.733553
4.650000	0.739280
4.660000	0.736734
4.670000	0.737371
4.680000	0.739280
4.690000	0.737371
4.700000	0.739916
4.710000	0.741825
4.720000	0.739280
4.730000	0.742461
4.740000	0.741825
4.750000	0.741188
4.760000	0.744370
4.770000	0.741825
4.780000	0.743097
4.790000	0.744370
4.800000	0.741825
4.810000	0.746279
4.820000	0.743734
4.830000	0.741188
4.840000	0.742461
4.850000	0.739916
4.860000	0.740552
4.870000	0.740552
4.880000	0.736734
4.890000	0.739916
4.900000	0.738007
4.910000	0.735462
4.920000	0.739280
4.930000	0.734189
4.940000	0.735462
4.950000	0.734189
4.960000	0.732280
4.970000	0.736098
4.980000	0.732280
4.990000	0.730371
5.000000	0.732917
5.010000	0.729099
5.020000	0.731644
5.030000	0.731644
5.040000	0.729099
5.050000	0.732280
5.060000	0.729099
5.070000	0.726554
5.080000	0.728462
5.090000	0.727190
5.100000	0.731644
5.110000	0.731644
5.120000	0.729099
5.130000	0.732280
5.140000	0.731008
5.150000	0.731644
5.160000	0.735462
5.170000	0.731644
5.180000	0.736098
5.190000	0.736098
5.200000	0.734189
5.210000	0.738643
5.220000	0.737371
5.230000	0.737371
5.240000	0.740552
5.250000	0.739280
5.260000	0.742461
5.270000	0.742461
5.280000	0.741188
5.290000	0.746279
5.300000	0.743734
5.310000	0.743097
5.320000	0.743734
5.330000	0.741825
5.340000	0.746279
5.350000	0.745643
5.360000	0.745643
5.370000	0.745643
5.380000	0.742461
5.390000	0.745006
5.400000	0.743734
5.410000	0.741825
5.420000	0.744370
5.430000	0.743097
5.440000	0.738643
5.450000	0.741825
5.460000	0.739916
5.470000	0.736734
5.480000	0.738643
5.490000	0.732917
5.500000	0.734825
5.510000	0.734825
5.520000	0.732917
5.530000	0.735462
5.540000	0.729099
5.550000	0.728462
5.560000	0.729099
5.570000	0.727826
5.580000	0.731008
5.590000	0.729735
5.600000	0.726554
5.610000	0.729735
5.620000	0.726554
5.630000	0.725917
5.640000	0.728462
5.650000	0.724645
5.660000	0.729735
5.670000	0.727826
5.680000	0.727826
5.690000	0.730371
5.700000	0.728462
5.710000	0.729099
5.720000	0.730371
5.730000	0.731008
5.740000	0.736734
5.750000	0.734189
5.760000	0.735462
5.770000	0.738643
5.780000	0.735462
5.790000	0.739280
5.800000	0.740552
5.810000	0.739280
5.820000	0.744370
5.830000	0.742461
5.840000	0.741825
5.850000	0.744370
5.860000	0.742461
5.870000	0.743097
5.880000	0.744370
5.890000	0.742461
5.900000	0.748188
5.910000	0.745006
5.920000	0.743734
5.930000	0.745643
5.940000	0.743097
5.950000	0.746915
5.960000	0.746279
5.970000	0.744370
5.980000	0.746915
5.990000	0.743734
6.000000	0.741188
6.010000	0.741825
6.020000	0.739916
6.030000	0.739280
6.040000	0.737371
6.050000	0.737371
6.060000	0.740552
6.070000	0.736734
6.080000	0.733553
6.090000	0.734189
6.100000	0.731008
6.110000	0.734825
6.120000	0.732917
6.130000	0.729735
6.140000	0.732917
6.150000	0.729099
6.160000	0.729099
6.170000	0.728462
6.180000	0.725281
6.190000	0.728462
6.200000	0.728462
6.210000	0.728462
6.220000	0.729099
6.230000	0.727190
6.240000	0.726554
6.250000	0.727190
6.260000	0.726554
6.270000	0.729099
6.280000	0.727826
6.290000	0.729735
6.300000	0.733553
6.310000	0.727190
6.320000	0.731644
6.330000	0.731644
6.340000	0.729735
6.350000	0.734189
6.360000	0.734189
6.370000	0.734189
6.380000	0.738643
6.390000	0.735462
6.400000	0.738007
6.410000	0.738643
6.420000	0.738007
6.430000	0.743097
6.440000	0.741188
6.450000	0.741188
6.460000	0.745643
6.470000	0.741825
6.480000	0.743097
6.490000	0.745643
6.500000	0.741188
6.510000	0.746915
6.520000	0.746279
6.530000	0.745643
6.540000	0.745643
6.550000	0.741188
6.560000	0.743097
6.570000	0.745643
6.580000	0.741188
6.590000	0.744370
6.600000	0.741825
6.610000	0.741188
6.620000	0.743097
6.630000	0.738007
6.640000	0.739280
6.650000	0.736734
6.660000	0.734825
6.670000	0.737371
6.680000	0.733553
6.690000	0.732917
6.700000	0.732280
6.710000	0.730371
6.720000	0.731644
6.730000	0.731644
6.740000	0.729099
6.750000	0.731644
6.760000	0.728462
6.770000	0.729735
6.780000	0.729099
6.790000	0.726554
6.800000	0.728462
6.810000	0.726554
6.820000	0.725917
6.830000	0.729099
6.840000	0.725281
6.850000	0.727826
6.860000	0.731008
6.870000	0.725281
6.880000	0.729099
6.890000	0.729099
6.900000	0.730371
6.910000	0.734189
6.920000	0.730371
6.930000	0.732280
6.940000	0.734189
6.950000	0.732917
6.960000	0.737371
6.970000	0.738643
6.980000	0.736734
6.990000	0.741188
7.000000	0.737371
7.010000	0.741188
7.020000	0.741825
7.030000	0.740552
7.040000	0.744370
7.050000	0.743734
7.060000	0.744370
7.070000	0.748188
7.080000	0.745006
7.090000	0.745643
7.100000	0.746915
7.110000	0.744370
7.120000	0.746915
7.130000	0.745006
7.140000	0.745643
7.150000	0.747551
7.160000	0.742461
7.170000	0.744370
7.180000	0.744370
7.190000	0.741825
7.200000	0.743734
7.210000	0.741825
7.220000	0.742461
7.230000	0.743097
7.240000	0.738007
7.250000	0.739280
7.260000	0.737371
7.270000	0.731644
7.280000	0.735462
7.290000	0.731644
7.300000	0.732917
7.310000	0.734825
7.320000	0.731008
7.330000	0.731644
7.340000	0.730371
7.350000	0.726554
7.360000	0.731644
7.370000	0.729099
7.380000	0.727826
7.390000	0.731008
7.400000	0.726554
7.410000	0.731644
7.420000	0.727190
7.430000	0.727826
7.440000	0.731008
7.450000	0.731644
7.460000	0.732280
7.470000	0.734189
7.480000	0.731644
7.490000	0.733553
7.500000	0.732280
7.510000	0.732280
7.520000	0.738007
7.530000	0.736734
7.540000	0.739280
7.550000	0.739916
7.560000	0.736734
7.570000	0.739280
7.580000	0.738643
7.590000	0.739916
7.600000	0.743734
7.610000	0.741188
7.620000	0.743097
7.630000	0.743734
7.640000	0.740552
7.650000	0.742461
7.660000	0.740552
7.670000	0.740552
7.680000	0.743734
7.690000	0.741825
7.700000	0.742461
7.710000	0.743097
7.720000	0.738643
7.730000	0.741188
7.740000	0.740552
7.750000	0.739916
7.760000	0.741188
7.770000	0.736098
7.780000	0.737371
7.790000	0.738007
7.800000	0.734189
7.810000	0.736098
7.820000	0.734189
7.830000	0.733553
7.840000	0.736734
7.850000	0.732280
7.860000	0.734189
7.870000	0.734189
7.880000	0.730371
7.890000	0.732917
7.900000	0.730371
7.910000	0.730371
7.920000	0.731008
7.930000	0.729099
7.940000	0.731008
7.950000	0.731644
7.960000	0.729735
7.970000	0.731644
7.980000	0.730371
7.990000	0.729735
8.000000	0.732917
8.010000	0.728462
8.020000	0.731644
8.030000	0.731644
8.040000	0.730371
8.050000	0.734189
8.060000	0.731644
8.070000	0.732280
8.080000	0.735462
8.090000	0.732280
8.100000	0.736098
8.110000	0.736734
8.120000	0.733553
8.130000	0.738007
8.140000	0.736734
8.150000	0.738643
8.160000	0.740552
8.170000	0.737371
8.180000	0.739280
8.190000	0.738643
8.200000	0.738643
8.210000	0.741825
8.220000	0.738643
8.230000	0.741825
8.240000	0.741825
8.250000	0.741188
8.260000	0.743097
8.270000	0.741825
8.280000	0.740552
8.290000	0.741825
8.300000	0.739280
8.310000	0.741188
8.320000	0.741825
8.330000	0.738643
8.340000	0.741188
8.350000	0.737371
8.360000	0.736098
8.370000	0.738643
8.380000	0.737371
8.390000	0.738007
8.400000	0.738643
8.410000	0.733553
8.420000	0.736734
8.430000	0.736098
8.440000	0.733553
8.450000	0.734189
8.460000	0.733553
8.470000	0.733553
8.480000	0.734825
8.490000	0.731008
8.500000	0.733553
8.510000	0.730371
8.520000	0.728462
8.530000	0.732917
8.540000	0.730371
8.550000	0.732280
8.560000	0.734189
8.570000	0.732280
8.580000	0.734189
8.590000	0.731644
8.600000	0.730371
8.610000	0.732917
8.620000	0.731644
8.630000	0.733553
8.640000	0.732917
8.650000	0.731644
8.660000	0.734189
8.670000	0.732917
8.680000	0.732917
8.690000	0.734825
8.700000	0.732917
8.710000	0.735462
8.720000	0.735462
8.730000	0.734189
8.740000	0.738007
8.750000	0.736734
8.760000	0.735462
8.770000	0.739280
8.780000	0.736734
8.790000	0.739280
8.800000	0.739280
8.810000	0.737371
8.820000	0.740552
8.830000	0.736734
8.840000	0.736734
8.850000	0.739280
8.860000	0.737371
8.870000	0.740552
8.880000	0.736734
8.890000	0.734825
8.900000	0.738007
8.910000	0.735462
8.920000	0.735462
8.930000	0.739280
8.940000	0.735462
8.950000	0.739280
8.960000	0.736734
8.970000	0.733553
8.980000	0.735462
8.990000	0.733553
9.000000	0.734189
9.010000	0.735462
9.020000	0.733553
9.030000	0.736098
9.040000	0.732280
9.050000	0.731644
9.060000	0.736098
9.070000	0.732280
9.080000	0.733553
9.090000	0.734189
9.100000	0.733553
9.110000	0.736098
9.120000	0.734825
9.130000	0.732917
9.140000	0.738007
9.150000	0.734189
9.160000	0.736734
9.170000	0.736734
9.180000	0.734189
9.190000	0.738643
9.200000	0.737371
9.210000	0.736098
9.220000	0.737371
9.230000	0.738007
9.240000	0.739280
9.250000	0.739280
9.260000	0.738007
9.270000	0.741188
9.280000	0.738643
9.290000	0.739916
9.300000	0.743734
9.310000	0.739280
9.320000	0.741825
9.330000	0.741188
9.340000	0.738007
9.350000	0.743097
9.360000	0.741188
9.370000	0.738643
9.380000	0.740552
9.390000	0.738643
9.400000	0.741188
9.410000	0.740552
9.420000	0.736734
9.430000	0.741188
9.440000	0.736098
9.450000	0.735462
9.460000	0.738643
9.470000	0.734825
9.480000	0.738007
9.490000	0.737371
9.500000	0.734189
9.510000	0.736734
9.520000	0.734189
9.530000	0.731644
9.540000	0.732917
9.550000	0.731008
9.560000	0.732917
9.570000	0.730371
9.580000	0.729735
9.590000	0.731008
9.600000	0.729099
9.610000	0.729735
9.620000	0.731644
9.630000	0.729099
9.640000	0.730371
9.650000	0.730371
9.660000	0.729099
9.670000	0.732280
9.680000	0.730371
9.690000	0.731644
9.700000	0.731008
9.710000	0.729099
9.720000	0.733553
9.730000	0.733553
9.740000	0.732280
9.750000	0.736734
9.760000	0.734189
9.770000	0.733553
9.780000	0.735462
9.790000	0.734189
9.800000	0.739280
9.810000	0.739280
9.820000	0.738007
9.830000	0.740552
9.840000	0.736734
9.850000	0.739916
9.860000	0.739916
9.870000	0.736734
9.880000	0.741825
9.890000	0.739280
9.900000	0.738643
9.910000	0.741188
9.920000	0.739916
9.930000	0.741825
9.940000	0.740552
9.950000	0.739280
9.960000	0.741825
9.970000	0.739280
9.980000	0.738643
9.990000	0.741825
10.000000	0.736098
10.010000	0.738643
10.020000	0.736098
10.030000	0.736734
10.040000	0.737371
10.050000	0.733553
10.060000	0.734189
10.070000	0.736734
10.080000	0.731644
10.090000	0.734825
10.100000	0.734189
10.110000	0.731644
10.120000	0.734825
10.130000	0.731644
10.140000	0.732917
10.150000	0.733553
10.160000	0.729735
10.170000	0.734189
10.180000	0.733553
10.190000	0.729735
10.200000	0.733553
10.210000	0.731008
10.220000	0.731644
10.230000	0.734189
10.240000	0.732280
10.250000	0.736098
10.260000	0.733553
